#Time	x(km)		y(km)		z(km)		alt(km)	    relVel		dwnrng(km)	 Q(kPa)	   Fuel(tons) dV_tot	  dV_grav	  dv_drag		 throttle	accel (g's)	      aoa
 -4.05	  917.129	-5526.343	 3049.432	   0.000	   0.000	0.000	     0.000	   409.500	     0.000	     0.000	     0.000	     0.000	     1.000	     0.000	    28.562	    28.562	 0.200
 -3.05	  917.129	-5526.343	 3049.432	   0.000	   0.000	0.000	     0.000	   409.500	     0.000	     0.000	     0.000	     0.000	     1.000	     0.000	    28.562	    28.562	 0.200
 -2.05	  917.129	-5526.343	 3049.432	   0.000	   0.000	0.000	     0.000	   409.500	     0.000	     0.000	     0.000	     0.000	     1.000	     0.000	    28.562	    28.562	 0.200
 -1.05	  917.129	-5526.343	 3049.432	   0.000	   0.000	0.000	     0.000	   408.719	     3.921	     0.000	     0.000	     1.000	     1.586	     0.000	    28.562	    28.562	 0.200
 -0.05	  917.129	-5526.343	 3049.432	   0.000	   0.000	0.000	     0.000	   406.434	    15.416	     0.000	     0.000	     1.000	     1.942	     0.000	    28.562	    28.562	 0.200
  0.00	  917.129	-5526.343	 3049.432	   0.000	   0.000	0.000	     0.000	   406.251	    16.338	     0.000	     0.000	     1.000	     1.255	    61.438	    28.562	    90.000	 0.200
  1.00	  917.130	-5526.345	 3049.432	   0.001	   2.611	0.000	     0.004	   403.815	    28.656	     0.000	     0.000	     1.000	     1.260	     0.311	    89.689	    89.996	 0.200
  2.00	  917.130	-5526.348	 3049.434	   0.005	   5.215	0.000	     0.016	   401.378	    41.030	     0.000	     0.000	     1.000	     1.266	     0.312	    89.688	    89.993	 0.200
  3.00	  917.131	-5526.353	 3049.437	   0.012	   7.876	0.000	     0.036	   398.941	    53.461	     0.000	     0.000	     1.000	     1.272	     0.310	    89.689	    89.989	 0.200
  4.00	  917.132	-5526.361	 3049.441	   0.021	  10.594	0.000	     0.066	   396.504	    65.949	     0.000	     0.000	     1.000	     1.278	     0.308	    89.690	    89.985	 0.200
  5.05	  917.134	-5526.372	 3049.447	   0.033	  13.510	0.000	     0.108	   393.945	    79.125	     0.000	     0.000	     1.000	     1.284	     0.306	    89.690	    89.982	 0.200
  6.05	  917.136	-5526.385	 3049.454	   0.048	  16.349	0.000	     0.159	   391.508	    91.735	     0.000	     0.000	     1.000	     1.290	     0.305	    89.691	    89.978	 0.200
  7.05	  917.139	-5526.401	 3049.463	   0.066	  19.248	0.000	     0.220	   389.072	   104.405	     0.000	     0.000	     1.000	     1.296	     0.303	    89.691	    89.974	 0.200
  8.05	  917.142	-5526.419	 3049.473	   0.087	  22.209	0.000	     0.293	   386.635	   117.137	     0.000	     0.000	     1.000	     1.303	     0.302	    89.691	    89.971	 0.200
  9.00	  917.145	-5526.438	 3049.483	   0.109	  25.079	0.001	     0.374	   384.320	   129.292	     0.000	     0.000	     1.000	     1.309	     0.300	    89.690	    89.967	 0.200
 10.00	  917.149	-5526.461	 3049.496	   0.135	  28.162	0.001	     0.471	   381.883	   142.148	     0.000	     0.000	     1.000	     1.315	     0.299	    89.689	    89.963	 0.200
 11.00	  917.153	-5526.487	 3049.510	   0.165	  31.310	0.001	     0.581	   379.446	   155.070	     0.000	     0.000	     1.000	     1.322	     0.298	    89.687	    89.960	 0.200
 12.00	  917.158	-5526.515	 3049.525	   0.198	  34.523	0.001	     0.705	   377.009	   168.058	     0.000	     0.000	     1.000	     1.328	     0.298	    89.685	    89.956	 0.200
 13.00	  917.163	-5526.547	 3049.542	   0.234	  37.803	0.001	     0.843	   374.572	   181.113	     0.000	     0.000	     1.000	     1.335	     0.297	    89.683	    89.952	 0.200
 14.00	  917.168	-5526.581	 3049.561	   0.273	  41.151	0.001	     0.995	   372.136	   194.238	     0.000	     0.000	     1.000	     1.342	     0.297	    89.681	    89.949	 0.200
 15.00	  917.174	-5526.618	 3049.581	   0.316	  44.567	0.002	     1.164	   369.699	   207.432	     0.000	     0.000	     1.000	     1.349	     0.297	    89.678	    89.945	 0.200
 16.00	  917.181	-5526.658	 3049.603	   0.362	  48.053	0.002	     1.348	   367.262	   220.698	     0.000	     0.000	     1.000	     1.356	     0.297	    89.675	    89.941	 0.200
 17.00	  917.188	-5526.702	 3049.627	   0.412	  51.611	0.002	     1.548	   364.825	   234.037	     0.000	     0.000	     1.000	     1.364	     0.297	    89.671	    89.938	 0.200
 18.00	  917.195	-5526.748	 3049.652	   0.465	  55.240	0.003	     1.766	   362.388	   247.449	     0.000	     0.000	     1.000	     1.371	     0.297	    89.668	    89.934	 0.200
 19.00	  917.203	-5526.798	 3049.679	   0.522	  58.943	0.003	     2.001	   359.951	   260.937	     0.000	     0.000	     1.000	     1.379	     0.297	    89.664	    89.930	 0.200
 20.00	  917.212	-5526.850	 3049.708	   0.583	  62.721	0.003	     2.254	   357.514	   274.501	     0.000	     0.000	     1.000	     1.386	     0.298	    89.660	    89.927	 0.200
 21.00	  917.221	-5526.906	 3049.739	   0.648	  66.575	0.004	     2.525	   355.078	   288.143	     0.000	     0.000	     1.000	     1.394	     0.298	    89.656	    89.923	 0.200
 22.00	  917.231	-5526.966	 3049.771	   0.716	  70.505	0.004	     2.814	   352.641	   301.864	     0.000	     0.000	     1.000	     1.402	     0.299	    89.651	    89.920	 0.200
 23.00	  917.241	-5527.029	 3049.805	   0.789	  74.513	0.004	     3.123	   350.204	   315.666	     0.000	     0.000	     1.000	     1.410	     0.300	    89.647	    89.916	 0.200
 24.00	  917.251	-5527.095	 3049.842	   0.865	  78.601	0.005	     3.452	   347.767	   329.550	     0.000	     0.000	     1.000	     1.418	     0.301	    89.642	    89.912	 0.200
 25.00	  917.263	-5527.165	 3049.880	   0.946	  82.770	0.005	     3.800	   345.330	   343.518	     0.000	     0.000	     1.000	     1.426	     0.301	    89.637	    89.909	 0.200
 26.00	  917.275	-5527.239	 3049.920	   1.030	  87.018	0.006	     4.168	   342.893	   357.570	     0.000	     0.000	     1.000	     1.435	    -1.585	    89.709	    88.595	 0.200
 27.00	  917.287	-5527.316	 3049.962	   1.119	  91.341	0.006	     4.555	   340.457	   371.709	     0.000	     0.000	     1.000	     1.443	    -2.745	    89.708	    87.099	 0.200
 28.00	  917.302	-5527.397	 3050.007	   1.213	  95.735	0.006	     4.961	   338.020	   385.935	     0.000	     0.000	     1.000	     1.452	    -3.715	    89.271	    85.602	 0.200
 29.00	  917.317	-5527.482	 3050.053	   1.311	 100.203	0.006	     5.387	   335.583	   400.251	     0.000	     0.000	     1.000	     1.461	    -4.518	    88.599	    84.106	 0.200
 30.00	  917.335	-5527.570	 3050.102	   1.413	 104.747	0.007	     5.831	   333.146	   414.657	     0.000	     0.000	     1.000	     1.470	    -5.173	    87.766	    82.610	 0.200
 31.00	  917.356	-5527.662	 3050.152	   1.520	 109.357	0.010	     6.292	   330.709	   429.155	     0.000	     0.000	     1.000	     1.479	    -5.732	    86.720	    81.000	 0.200
 32.00	  917.379	-5527.758	 3050.205	   1.631	 114.087	0.016	     6.777	   328.272	   443.747	     0.000	     0.000	     1.000	     1.488	    -4.727	    85.716	    81.000	 0.200
 33.00	  917.405	-5527.857	 3050.260	   1.747	 118.940	0.026	     7.285	   325.835	   458.434	     0.000	     0.000	     1.000	     1.497	    -3.801	    84.789	    81.000	 0.200
 34.00	  917.435	-5527.960	 3050.317	   1.868	 123.912	0.037	     7.817	   323.399	   473.217	     0.000	     0.000	     1.000	     1.506	    -2.946	    83.934	    81.000	 0.200
 35.00	  917.467	-5528.066	 3050.377	   1.993	 129.003	0.051	     8.372	   320.962	   488.098	     0.000	     0.000	     1.000	     1.516	    -2.158	    83.144	    81.000	 0.200
 36.00	  917.502	-5528.177	 3050.439	   2.124	 134.211	0.068	     8.948	   318.525	   503.079	     0.000	     0.000	     1.000	     1.526	    -1.433	    82.413	    81.000	 0.200
 37.00	  917.540	-5528.291	 3050.503	   2.259	 139.535	0.087	     9.547	   316.088	   518.160	     0.000	     0.000	     1.000	     1.535	    -0.771	    81.738	    81.000	 0.200
 38.05	  917.583	-5528.416	 3050.573	   2.407	 145.247	0.109	    10.197	   313.529	   534.105	     0.000	     0.000	     1.000	     1.546	    -0.230	    81.082	    81.000	 0.200
 39.05	  917.628	-5528.539	 3050.643	   2.553	 150.805	0.133	    10.837	   311.093	   549.397	     0.000	     0.000	     1.000	     1.556	     0.536	    80.506	    81.000	 0.200
 40.05	  917.675	-5528.666	 3050.715	   2.704	 156.476	0.159	    11.495	   308.656	   564.795	     0.000	     0.000	     1.000	     1.566	     1.048	    79.971	    81.000	 0.200
 41.05	  917.726	-5528.797	 3050.789	   2.861	 162.259	0.187	    12.170	   306.219	   580.299	     0.000	     0.000	     1.000	     1.576	     1.536	    79.476	    81.000	 0.200
 42.05	  917.780	-5528.933	 3050.866	   3.023	 168.156	0.218	    12.861	   303.782	   595.911	     0.000	     0.000	     1.000	     1.586	     1.992	    79.017	    81.000	 0.200
 43.05	  917.837	-5529.073	 3050.946	   3.191	 174.165	0.251	    13.566	   301.345	   611.633	     0.000	     0.000	     1.000	     1.597	     2.416	    78.591	    81.000	 0.200
 44.05	  917.897	-5529.218	 3051.028	   3.364	 180.288	0.287	    14.284	   298.908	   627.466	     0.000	     0.000	     1.000	     1.608	     2.810	    78.196	    81.000	 0.200
 45.05	  917.960	-5529.367	 3051.113	   3.543	 186.523	0.325	    15.013	   296.471	   643.412	     0.000	     0.000	     1.000	     1.618	     3.176	    77.829	    81.000	 0.200
 46.05	  918.027	-5529.521	 3051.201	   3.728	 192.872	0.365	    15.750	   294.035	   659.471	     0.000	     0.000	     1.000	     1.629	     3.516	    77.489	    81.000	 0.200
 47.05	  918.097	-5529.680	 3051.292	   3.920	 199.336	0.408	    16.494	   291.598	   675.646	     0.000	     0.000	     1.000	     1.640	     3.831	    77.173	    81.000	 0.200
 48.05	  918.170	-5529.844	 3051.385	   4.117	 205.914	0.454	    17.242	   289.161	   691.937	     0.000	     0.000	     1.000	     1.651	     4.124	    76.880	    81.000	 0.200
 49.05	  918.247	-5530.013	 3051.482	   4.320	 212.607	0.502	    17.992	   286.724	   708.347	     0.000	     0.000	     1.000	     1.663	     4.396	    76.608	    81.000	 0.200
 50.05	  918.327	-5530.187	 3051.582	   4.530	 219.416	0.552	    18.741	   284.287	   724.876	     0.000	     0.000	     1.000	     1.674	     4.648	    76.355	    81.000	 0.200
 51.05	  918.410	-5530.366	 3051.685	   4.746	 226.342	0.605	    19.486	   281.850	   741.525	     0.000	     0.000	     1.000	     1.685	     4.881	    76.121	    81.000	 0.203
 52.05	  918.497	-5530.550	 3051.790	   4.969	 233.380	0.661	    20.225	   279.414	   758.297	     0.000	     0.000	     1.000	     1.696	     5.098	    75.904	    81.000	 0.209
 53.05	  918.588	-5530.740	 3051.900	   5.199	 240.529	0.719	    20.952	   276.977	   775.193	     0.000	     0.000	     1.000	     1.707	     5.299	    75.703	    81.000	 0.217
 54.05	  918.682	-5530.935	 3052.012	   5.435	 247.787	0.779	    21.665	   274.540	   792.214	     0.000	     0.000	     1.000	     1.718	     5.485	    75.517	    81.000	 0.227
 55.05	  918.779	-5531.136	 3052.127	   5.678	 255.154	0.842	    22.359	   272.103	   809.361	     0.000	     0.000	     1.000	     1.729	     5.658	    75.345	    81.000	 0.238
 56.05	  918.880	-5531.342	 3052.246	   5.929	 262.648	0.908	    23.036	   269.666	   826.635	     0.000	     0.000	     1.000	     1.739	     4.368	    75.139	    79.505	 0.251
 57.05	  918.985	-5531.554	 3052.368	   6.186	 270.285	0.977	    23.693	   267.229	   844.039	     0.000	     0.000	     1.000	     1.750	     3.160	    74.851	    78.010	 0.265
 58.05	  919.095	-5531.771	 3052.494	   6.450	 278.058	1.049	    24.327	   264.792	   861.573	     0.000	     0.000	     1.000	     1.760	     2.027	    74.488	    76.514	 0.280
 59.05	  919.209	-5531.994	 3052.623	   6.721	 285.964	1.126	    24.933	   262.356	   879.238	     0.000	     0.000	     1.000	     1.770	     0.027	    74.024	    74.051	 0.296
 60.05	  919.330	-5532.223	 3052.755	   6.999	 293.999	1.207	    25.509	   259.919	   897.036	     0.000	     0.000	     1.000	     1.780	     0.027	    73.495	    73.522	 0.313
 61.05	  919.456	-5532.456	 3052.890	   7.285	 302.160	1.293	    26.049	   257.482	   914.968	     0.000	     0.000	     1.000	     1.790	     0.027	    72.964	    72.991	 0.330
 62.05	  919.588	-5532.695	 3053.029	   7.577	 310.447	1.384	    26.552	   255.045	   933.035	     0.000	     0.000	     1.000	     1.801	     0.027	    72.432	    72.459	 0.347
 63.05	  919.726	-5532.939	 3053.171	   7.876	 318.863	1.480	    27.013	   252.608	   951.238	     0.000	     0.000	     1.000	     1.811	     0.027	    71.898	    71.925	 0.365
 64.05	  919.871	-5533.189	 3053.316	   8.182	 327.408	1.582	    27.430	   250.171	   969.579	     0.000	     0.000	     1.000	     1.821	     0.027	    71.363	    71.390	 0.382
 65.05	  920.022	-5533.443	 3053.465	   8.496	 336.085	1.689	    27.800	   247.735	   988.059	     0.000	     0.000	     1.000	     1.832	     0.027	    70.827	    70.854	 0.398
 66.05	  920.180	-5533.704	 3053.616	   8.817	 344.898	1.802	    28.123	   245.298	  1006.679	     0.000	     0.000	     1.000	     1.842	     0.027	    70.291	    70.318	 0.414
 67.05	  920.345	-5533.969	 3053.772	   9.145	 353.848	1.921	    28.395	   242.861	  1025.441	     0.000	     0.000	     1.000	     1.853	     0.027	    69.755	    69.782	 0.430
 68.05	  920.518	-5534.240	 3053.931	   9.480	 362.941	2.047	    28.615	   240.424	  1044.344	     0.000	     0.000	     1.000	     1.865	     0.027	    69.219	    69.246	 0.444
 69.05	  920.697	-5534.516	 3054.093	   9.823	 372.180	2.179	    28.783	   237.987	  1063.392	     0.000	     0.000	     1.000	     1.876	     0.027	    68.684	    68.711	 0.456
 70.05	  920.885	-5534.798	 3054.258	  10.173	 381.570	2.317	    28.898	   235.550	  1082.584	     0.000	     0.000	     1.000	     1.889	     0.027	    68.149	    68.176	 0.468
 71.05	  921.080	-5535.085	 3054.427	  10.531	 391.117	2.462	    28.960	   233.113	  1101.922	     0.000	     0.000	     1.000	     1.901	     0.027	    67.615	    67.642	 0.477
 72.05	  921.283	-5535.377	 3054.600	  10.896	 400.827	2.615	    28.971	   230.677	  1121.408	     0.000	     0.000	     1.000	     1.915	     0.027	    67.082	    67.109	 0.485
 73.05	  921.495	-5535.675	 3054.776	  11.269	 410.705	2.774	    28.931	   228.240	  1141.043	     0.000	     0.000	     1.000	     1.928	     0.027	    66.551	    66.577	 0.491
 74.05	  921.715	-5535.979	 3054.955	  11.649	 420.760	2.941	    28.844	   225.803	  1160.827	     0.000	     0.000	     1.000	     1.943	     0.027	    66.021	    66.048	 0.494
 75.05	  921.943	-5536.287	 3055.138	  12.037	 430.997	3.115	    28.712	   223.366	  1180.763	     0.000	     0.000	     1.000	     1.958	     0.027	    65.493	    65.520	 0.496
 76.05	  922.181	-5536.602	 3055.325	  12.433	 441.422	3.298	    28.540	   220.929	  1200.851	     0.000	     0.000	     1.000	     1.973	     0.026	    64.968	    64.994	 0.496
 77.05	  922.428	-5536.921	 3055.515	  12.837	 452.040	3.488	    28.332	   218.492	  1221.094	     0.000	     0.000	     1.000	     1.989	     0.026	    64.444	    64.471	 0.495
 78.05	  922.684	-5537.247	 3055.709	  13.248	 462.856	3.687	    28.095	   216.056	  1241.491	     0.000	     0.000	     1.000	     2.006	     0.026	    63.924	    63.950	 0.493
 79.05	  922.949	-5537.578	 3055.906	  13.668	 473.876	3.894	    27.837	   213.619	  1262.046	     0.000	     0.000	     1.000	     2.023	     0.026	    63.406	    63.432	 0.489
 80.05	  923.225	-5537.914	 3056.107	  14.095	 485.111	4.110	    26.513	   211.182	  1282.758	     0.000	     0.000	     1.000	     2.043	     0.026	    62.891	    62.917	 0.484
 81.05	  923.511	-5538.256	 3056.312	  14.531	 496.587	4.336	    25.937	   208.745	  1303.631	     0.000	     0.000	     1.000	     2.062	     0.026	    62.379	    62.405	 0.478
 82.05	  923.807	-5538.604	 3056.521	  14.974	 508.289	4.570	    25.336	   206.308	  1324.664	     0.000	     0.000	     1.000	     2.081	     0.026	    61.871	    61.897	 0.470
 83.05	  924.113	-5538.957	 3056.733	  15.427	 520.220	4.814	    24.712	   203.871	  1345.861	     0.000	     0.000	     1.000	     2.100	     0.025	    61.367	    61.392	 0.461
 84.05	  924.431	-5539.317	 3056.950	  15.887	 532.386	5.067	    24.067	   201.434	  1367.222	     0.000	     0.000	     1.000	     2.120	     0.025	    60.866	    60.891	 0.451
 85.05	  924.760	-5539.682	 3057.170	  16.356	 544.789	5.331	    23.404	   198.998	  1388.749	     0.000	     0.000	     1.000	     2.140	     0.025	    60.369	    60.394	 0.440
 86.05	  925.100	-5540.052	 3057.394	  16.834	 557.433	5.605	    22.725	   196.561	  1410.444	     0.000	     0.000	     1.000	     2.160	     0.025	    59.876	    59.901	 0.429
 87.05	  925.452	-5540.429	 3057.622	  17.320	 570.321	5.889	    22.031	   194.124	  1432.308	     0.000	     0.000	     1.000	     2.181	     0.025	    59.387	    59.412	 0.417
 88.05	  925.816	-5540.812	 3057.853	  17.815	 583.456	6.184	    21.325	   191.687	  1454.344	     0.000	     0.000	     1.000	     2.202	     0.024	    58.903	    58.928	 0.404
 89.05	  926.191	-5541.200	 3058.089	  18.318	 596.840	6.490	    20.610	   189.250	  1476.553	     0.000	     0.000	     1.000	     2.223	     0.024	    58.423	    58.448	 0.390
 90.05	  926.580	-5541.594	 3058.329	  18.831	 610.474	6.807	    19.886	   186.813	  1498.938	     0.000	     0.000	     1.000	     2.244	     0.024	    57.948	    57.972	 0.377
 91.05	  926.981	-5541.995	 3058.573	  19.352	 624.362	7.136	    19.158	   184.377	  1521.500	     0.000	     0.000	     1.000	     2.266	     0.024	    57.478	    57.502	 0.363
 92.05	  927.395	-5542.401	 3058.821	  19.883	 638.504	7.476	    18.426	   181.940	  1544.241	     0.000	     0.000	     1.000	     2.287	     0.024	    57.012	    57.036	 0.349
 93.05	  927.823	-5542.813	 3059.073	  20.423	 652.919	7.829	    16.697	   179.503	  1567.164	     0.000	     0.000	     1.000	     2.311	     0.023	    56.551	    56.574	 0.338
 94.05	  928.264	-5543.232	 3059.330	  20.972	 667.591	8.194	    16.156	   177.066	  1590.270	     0.000	     0.000	     1.000	     2.332	     0.023	    56.095	    56.118	 0.324
 95.05	  928.719	-5543.656	 3059.590	  21.530	 682.518	8.571	    15.609	   174.629	  1613.562	     0.000	     0.000	     1.000	     2.354	     0.023	    55.644	    55.667	 0.310
 96.05	  929.188	-5544.087	 3059.855	  22.098	 697.701	8.961	    15.057	   172.192	  1637.043	     0.000	     0.000	     1.000	     2.375	     0.023	    55.199	    55.221	 0.297
 97.05	  929.672	-5544.524	 3060.124	  22.675	 713.141	9.365	    14.501	   169.755	  1660.714	     0.000	     0.000	     1.000	     2.397	     0.022	    54.758	    54.780	 0.284
 98.05	  930.170	-5544.967	 3060.398	  23.262	 728.840	9.781	    13.945	   167.319	  1684.579	     0.000	     0.000	     1.000	     2.419	     0.022	    54.322	    54.344	 0.271
 99.05	  930.683	-5545.416	 3060.675	  23.859	 744.800	10.212	    13.388	   164.882	  1708.639	     0.000	     0.000	     1.000	     2.441	     0.022	    53.892	    53.913	 0.259
100.05	  931.211	-5545.872	 3060.957	  24.465	 761.021	10.656	    12.833	   162.445	  1732.898	     0.000	     0.000	     1.000	     2.464	     0.022	    53.466	    53.488	 0.247
101.05	  931.755	-5546.333	 3061.244	  25.081	 777.506	11.114	    12.281	   160.008	  1757.359	     0.000	     0.000	     1.000	     2.486	     0.021	    53.046	    53.068	 0.236
102.05	  932.315	-5546.801	 3061.535	  25.707	 794.257	11.587	    11.734	   157.571	  1782.023	     0.000	     0.000	     1.000	     2.509	     0.021	    52.631	    52.653	 0.225
103.05	  932.891	-5547.276	 3061.830	  26.342	 811.274	12.074	    11.193	   155.134	  1806.894	     0.000	     0.000	     1.000	     2.532	     0.021	    52.222	    52.243	 0.215
104.05	  933.483	-5547.756	 3062.129	  26.988	 828.560	12.576	    10.659	   152.698	  1831.975	     0.000	     0.000	     1.000	     2.555	     0.021	    51.817	    51.838	 0.205
105.05	  934.092	-5548.243	 3062.434	  27.644	 846.116	13.094	    10.134	   150.261	  1857.270	     0.000	     0.000	     1.000	     2.578	     0.020	    51.418	    51.439	 0.200
