#Time	x(km)		y(km)		z(km)		alt(km)	    relVel		dwnrng(km)	 Q(kPa)	   Fuel(tons) dV_tot	  dV_grav	  dv_drag		 throttle	accel (g's)	      aoa
 -4.05	-2672.329	-4516.862	 3624.534	   0.000	   0.000	0.000	     0.000	   395.700	     0.000	     0.000	     0.000	     0.000	     1.000	    90.000	    -0.000	    34.630
 -3.05	-2672.329	-4516.862	 3624.534	   0.000	   0.000	0.000	     0.000	   395.700	     0.000	     0.000	     0.000	     0.000	     1.000	    90.000	    -0.000	    34.630
 -2.05	-2672.329	-4516.862	 3624.534	   0.000	   0.000	0.000	     0.000	   395.700	     0.000	     0.000	     0.000	     0.000	     1.000	    90.000	    -0.000	    34.630
 -1.05	-2672.329	-4516.862	 3624.534	   0.000	   0.000	0.000	     0.000	   394.947	     4.011	     0.000	     0.000	     0.712	     1.000	    90.000	    -0.000	    34.630
 -0.05	-2672.329	-4516.862	 3624.534	   0.000	   0.000	0.000	     0.000	   392.933	    14.754	     0.000	     0.000	     1.000	     1.000	    90.000	    -0.000	    34.630
  0.00	-2672.329	-4516.862	 3624.534	   0.000	   0.000	0.000	     0.000	   392.828	    15.320	     0.000	     0.000	     1.000	     1.000	    90.000	    -0.000	    34.630
  1.03	-2672.329	-4516.863	 3624.534	   0.001	   1.600	0.000	     0.001	   390.660	    26.938	     0.000	     0.000	     1.000	     1.159	     0.565	    89.435	    89.997
  2.03	-2672.330	-4516.865	 3624.535	   0.003	   3.210	0.000	     0.006	   388.545	    38.321	     0.000	     0.000	     1.000	     1.164	     0.564	    89.436	    89.993
  3.03	-2672.332	-4516.867	 3624.538	   0.007	   4.866	0.000	     0.014	   386.430	    49.751	     0.000	     0.000	     1.000	     1.169	     0.559	    89.441	    89.990
  4.03	-2672.334	-4516.871	 3624.541	   0.013	   6.571	0.000	     0.026	   384.315	    61.229	     0.000	     0.000	     1.000	     1.174	     0.552	    89.446	    89.986
  5.02	-2672.338	-4516.877	 3624.545	   0.020	   8.325	0.000	     0.042	   382.200	    72.756	     0.000	     0.000	     1.000	     1.179	     0.546	    89.452	    89.983
  6.02	-2672.341	-4516.883	 3624.550	   0.029	  10.128	0.000	     0.062	   380.086	    84.333	     0.000	     0.000	     1.000	     1.184	     0.540	    89.457	    89.979
  7.02	-2672.346	-4516.891	 3624.556	   0.040	  11.981	0.000	     0.087	   377.971	    95.959	     0.000	     0.000	     1.000	     1.189	     0.534	    89.462	    89.976
  8.02	-2672.352	-4516.900	 3624.563	   0.053	  13.888	0.001	     0.117	   375.856	   107.637	     0.000	     0.000	     1.000	     1.194	     0.205	    88.295	    88.499
  9.03	-2672.358	-4516.911	 3624.571	   0.068	  15.850	0.001	     0.152	   373.741	   119.366	     0.000	     0.000	     1.000	     1.200	     1.168	    87.331	    88.499
 10.03	-2672.366	-4516.923	 3624.580	   0.085	  17.868	0.002	     0.193	   371.626	   131.147	     0.000	     0.000	     1.000	     1.205	     1.912	    86.586	    88.498
 11.03	-2672.374	-4516.937	 3624.590	   0.104	  19.942	0.003	     0.240	   369.511	   142.981	     0.000	     0.000	     1.000	     1.211	     2.498	    85.999	    88.498
 12.03	-2672.383	-4516.952	 3624.600	   0.125	  22.070	0.005	     0.294	   367.396	   154.869	     0.000	     0.000	     1.000	     1.216	     2.967	    85.530	    88.497
 13.03	-2672.394	-4516.969	 3624.612	   0.148	  24.254	0.007	     0.354	   365.281	   166.811	     0.000	     0.000	     1.000	     1.222	     3.345	    85.151	    88.496
 14.03	-2672.405	-4516.988	 3624.625	   0.173	  26.494	0.009	     0.422	   363.166	   178.808	     0.000	     0.000	     1.000	     1.227	     3.653	    84.842	    88.496
 15.03	-2672.418	-4517.009	 3624.638	   0.200	  28.791	0.012	     0.497	   361.052	   190.862	     0.000	     0.000	     1.000	     1.233	     3.906	    84.589	    88.495
 16.03	-2672.432	-4517.031	 3624.653	   0.230	  31.144	0.014	     0.581	   358.937	   202.972	     0.000	     0.000	     1.000	     1.239	     4.114	    84.380	    88.494
 17.03	-2672.447	-4517.055	 3624.668	   0.262	  33.556	0.018	     0.672	   356.822	   215.140	     0.000	     0.000	     1.000	     1.245	     4.286	    84.208	    88.494
 18.03	-2672.463	-4517.081	 3624.685	   0.297	  36.025	0.021	     0.773	   354.707	   227.367	     0.000	     0.000	     1.000	     1.251	     4.427	    84.066	    88.493
 19.03	-2672.480	-4517.108	 3624.703	   0.334	  38.554	0.025	     0.882	   352.592	   239.652	     0.000	     0.000	     1.000	     1.257	     4.543	    83.949	    88.493
 20.03	-2672.498	-4517.138	 3624.722	   0.373	  41.143	0.029	     1.001	   350.477	   251.998	     0.000	     0.000	     1.000	     1.263	     4.639	    83.853	    88.492
 21.03	-2672.518	-4517.170	 3624.742	   0.415	  43.793	0.034	     1.129	   348.362	   264.406	     0.000	     0.000	     1.000	     1.269	     4.716	    83.775	    88.491
 22.03	-2672.539	-4517.203	 3624.764	   0.460	  46.505	0.039	     1.268	   346.247	   276.875	     0.000	     0.000	     1.000	     1.276	     4.779	    83.712	    88.491
 23.03	-2672.561	-4517.239	 3624.787	   0.508	  49.279	0.044	     1.418	   344.132	   289.407	     0.000	     0.000	     1.000	     1.282	     4.828	    83.662	    88.490
 24.03	-2672.585	-4517.277	 3624.811	   0.558	  52.116	0.050	     1.579	   342.018	   302.003	     0.000	     0.000	     1.000	     1.289	     4.867	    83.623	    88.489
 25.03	-2672.610	-4517.317	 3624.836	   0.611	  55.018	0.056	     1.750	   339.903	   314.664	     0.000	     0.000	     1.000	     1.295	     4.896	    83.593	    88.489
 26.03	-2672.636	-4517.359	 3624.863	   0.667	  57.985	0.062	     1.934	   337.788	   327.390	     0.000	     0.000	     1.000	     1.302	     4.916	    83.572	    88.488
 27.03	-2672.664	-4517.403	 3624.891	   0.726	  61.019	0.069	     2.130	   335.673	   340.184	     0.000	     0.000	     1.000	     1.309	     4.929	    83.558	    88.487
 28.03	-2672.693	-4517.450	 3624.921	   0.788	  64.120	0.076	     2.338	   333.558	   353.045	     0.000	     0.000	     1.000	     1.316	     4.936	    83.551	    88.487
 29.03	-2672.724	-4517.499	 3624.952	   0.854	  67.289	0.083	     2.559	   331.443	   365.975	     0.000	     0.000	     1.000	     1.323	     4.937	    83.549	    88.486
 30.03	-2672.756	-4517.550	 3624.984	   0.922	  70.527	0.091	     2.792	   329.328	   378.975	     0.000	     0.000	     1.000	     1.330	     4.934	    83.552	    88.485
 31.03	-2672.790	-4517.604	 3625.019	   0.994	  73.836	0.099	     3.039	   327.213	   392.046	     0.000	     0.000	     1.000	     1.337	     4.926	    83.559	    88.484
 32.03	-2672.825	-4517.660	 3625.054	   1.069	  77.216	0.107	     3.300	   325.098	   405.189	     0.000	     0.000	     1.000	     1.344	     4.914	    83.570	    88.484
 33.03	-2672.862	-4517.719	 3625.092	   1.147	  80.668	0.116	     3.574	   322.984	   418.405	     0.000	     0.000	     1.000	     1.352	     4.899	    83.585	    88.483
 34.03	-2672.901	-4517.780	 3625.131	   1.229	  84.193	0.125	     3.863	   320.869	   431.695	     0.000	     0.000	     1.000	     1.359	     4.881	    83.602	    88.482
 35.03	-2672.941	-4517.844	 3625.172	   1.314	  87.794	0.135	     4.165	   318.754	   445.060	     0.000	     0.000	     1.000	     1.367	     4.860	    83.622	    88.482
 36.03	-2672.983	-4517.911	 3625.214	   1.403	  91.469	0.145	     4.482	   316.639	   458.501	     0.000	     0.000	     1.000	     1.375	     4.837	    83.645	    88.481
 37.03	-2673.026	-4517.980	 3625.259	   1.496	  95.222	0.155	     4.813	   314.524	   472.021	     0.000	     0.000	     1.000	     1.383	     4.812	    83.669	    88.480
 38.02	-2673.072	-4518.052	 3625.305	   1.592	  99.052	0.166	     5.159	   312.409	   485.619	     0.000	     0.000	     1.000	     1.391	     4.785	    83.695	    88.479
 39.02	-2673.119	-4518.127	 3625.353	   1.693	 102.962	0.177	     5.519	   310.294	   499.296	     0.000	     0.000	     1.000	     1.399	     4.756	    83.723	    88.479
 40.02	-2673.168	-4518.205	 3625.403	   1.797	 106.951	0.188	     5.893	   308.179	   513.055	     0.000	     0.000	     1.000	     1.407	     4.726	    83.752	    88.478
 41.02	-2673.219	-4518.286	 3625.455	   1.905	 111.022	0.200	     6.282	   306.064	   526.896	     0.000	     0.000	     1.000	     1.415	     4.716	    83.786	    88.500
 42.02	-2673.272	-4518.370	 3625.509	   2.017	 115.175	0.212	     6.686	   303.950	   540.821	     0.000	     0.000	     1.000	     1.424	     4.681	    83.820	    88.499
 43.02	-2673.327	-4518.457	 3625.565	   2.134	 119.412	0.225	     7.103	   301.835	   554.830	     0.000	     0.000	     1.000	     1.432	     4.645	    83.855	    88.499
 44.02	-2673.383	-4518.548	 3625.623	   2.255	 123.733	0.238	     7.534	   299.720	   568.925	     0.000	     0.000	     1.000	     1.441	     4.608	    83.891	    88.498
 45.02	-2673.442	-4518.641	 3625.684	   2.380	 128.141	0.251	     7.979	   297.605	   583.108	     0.000	     0.000	     1.000	     1.450	     4.571	    83.927	    88.497
 46.02	-2673.503	-4518.738	 3625.746	   2.509	 132.636	0.265	     8.437	   295.490	   597.378	     0.000	     0.000	     1.000	     1.459	     4.534	    83.964	    88.497
 47.02	-2673.566	-4518.838	 3625.811	   2.643	 137.219	0.279	     8.908	   293.375	   611.739	     0.000	     0.000	     1.000	     1.468	     4.496	    84.002	    88.496
 48.02	-2673.631	-4518.942	 3625.878	   2.782	 141.893	0.293	     9.392	   291.260	   626.190	     0.000	     0.000	     1.000	     1.477	     4.458	    84.039	    88.496
 49.02	-2673.698	-4519.049	 3625.948	   2.925	 146.657	0.308	     9.887	   289.145	   640.734	     0.000	     0.000	     1.000	     1.486	     4.419	    84.077	    88.495
 50.02	-2673.767	-4519.159	 3626.020	   3.074	 151.514	0.324	    10.393	   287.030	   655.371	     0.000	     0.000	     1.000	     1.496	     4.380	    84.115	    88.495
 51.02	-2673.839	-4519.273	 3626.094	   3.227	 156.465	0.339	    10.909	   284.916	   670.103	     0.000	     0.000	     1.000	     1.506	     4.341	    84.154	    88.494
 52.02	-2673.912	-4519.391	 3626.171	   3.385	 161.510	0.355	    11.436	   282.801	   684.931	     0.000	     0.000	     1.000	     1.515	     4.302	    84.192	    88.494
 53.02	-2673.988	-4519.513	 3626.250	   3.548	 166.652	0.372	    11.970	   280.686	   699.856	     0.000	     0.000	     1.000	     1.525	     4.263	    84.231	    88.493
 54.02	-2674.067	-4519.638	 3626.332	   3.716	 171.891	0.389	    12.513	   278.571	   714.881	     0.000	     0.000	     1.000	     1.535	     4.224	    84.269	    88.493
 55.02	-2674.148	-4519.767	 3626.417	   3.890	 177.229	0.406	    13.062	   276.456	   730.005	     0.000	     0.000	     1.000	     1.545	     4.185	    84.308	    88.492
 56.02	-2674.232	-4519.900	 3626.504	   4.068	 182.707	0.424	    13.622	   274.341	   745.231	     0.000	     0.000	     1.000	     1.555	     0.111	    84.051	    84.161
 57.02	-2674.318	-4520.038	 3626.593	   4.253	 188.295	0.444	    14.189	   272.226	   760.559	     0.000	     0.000	     1.000	     1.566	     0.049	    83.730	    83.779
 58.02	-2674.408	-4520.180	 3626.684	   4.443	 193.992	0.466	    14.759	   270.111	   775.992	     0.000	     0.000	     1.000	     1.576	     0.115	    83.402	    83.518
 59.02	-2674.501	-4520.327	 3626.776	   4.638	 199.799	0.489	    15.332	   267.996	   791.529	     0.000	     0.000	     1.000	     1.587	     0.101	    83.067	    83.168
 60.02	-2674.597	-4520.478	 3626.870	   4.839	 205.719	0.514	    15.907	   265.882	   807.174	     0.000	     0.000	     1.000	     1.598	     0.086	    82.726	    82.812
 61.02	-2674.697	-4520.635	 3626.966	   5.046	 211.754	0.541	    16.481	   263.767	   822.926	     0.000	     0.000	     1.000	     1.609	     0.070	    82.379	    82.449
 62.02	-2674.800	-4520.796	 3627.064	   5.258	 217.905	0.570	    17.054	   261.652	   838.788	     0.000	     0.000	     1.000	     1.620	     0.053	    82.026	    82.079
 63.02	-2674.906	-4520.962	 3627.163	   5.477	 224.172	0.601	    17.623	   259.537	   854.761	     0.000	     0.000	     1.000	     1.630	     0.036	    81.667	    81.703
 64.02	-2675.017	-4521.133	 3627.263	   5.702	 230.553	0.635	    18.186	   257.422	   870.845	     0.000	     0.000	     1.000	     1.641	     0.018	    81.303	    81.322
 65.02	-2675.131	-4521.309	 3627.366	   5.933	 237.049	0.671	    18.741	   255.307	   887.043	     0.000	     0.000	     1.000	     1.652	     0.129	    80.934	    81.064
 66.02	-2675.249	-4521.491	 3627.469	   6.170	 243.659	0.710	    19.285	   253.192	   903.355	     0.000	     0.000	     1.000	     1.662	     0.113	    80.561	    80.673
 67.02	-2675.370	-4521.678	 3627.575	   6.413	 250.382	0.751	    19.817	   251.077	   919.783	     0.000	     0.000	     1.000	     1.673	     0.095	    80.183	    80.278
 68.02	-2675.496	-4521.871	 3627.681	   6.663	 257.218	0.795	    20.334	   248.963	   936.328	     0.000	     0.000	     1.000	     1.683	     0.096	    79.800	    79.896
 69.02	-2675.626	-4522.069	 3627.789	   6.919	 264.168	0.842	    20.833	   246.848	   952.991	     0.000	     0.000	     1.000	     1.693	     0.019	    79.414	    79.433
 70.02	-2675.761	-4522.273	 3627.898	   7.182	 271.230	0.892	    21.312	   244.733	   969.774	     0.000	     0.000	     1.000	     1.703	     0.059	    79.023	    79.082
 71.02	-2675.899	-4522.483	 3628.009	   7.451	 278.405	0.945	    21.769	   242.618	   986.678	     0.000	     0.000	     1.000	     1.713	     0.099	    78.629	    78.728
 72.02	-2676.042	-4522.699	 3628.120	   7.727	 285.694	1.002	    22.202	   240.503	  1003.704	     0.000	     0.000	     1.000	     1.723	     0.020	    78.232	    78.252
 73.02	-2676.190	-4522.920	 3628.233	   8.010	 293.095	1.062	    22.607	   238.388	  1020.854	     0.000	     0.000	     1.000	     1.733	     0.060	    77.832	    77.892
 74.02	-2676.342	-4523.148	 3628.347	   8.300	 300.612	1.125	    22.984	   236.273	  1038.128	     0.000	     0.000	     1.000	     1.744	     0.101	    77.429	    77.530
 75.02	-2676.499	-4523.382	 3628.462	   8.597	 308.243	1.192	    23.329	   234.158	  1055.528	     0.000	     0.000	     1.000	     1.754	     0.020	    77.023	    77.044
 76.02	-2676.661	-4523.622	 3628.577	   8.900	 315.991	1.264	    23.641	   232.043	  1073.055	     0.000	     0.000	     1.000	     1.764	     0.061	    76.616	    76.677
 77.02	-2676.828	-4523.869	 3628.694	   9.211	 323.857	1.339	    23.918	   229.929	  1090.711	     0.000	     0.000	     1.000	     1.774	     0.103	    76.206	    76.308
 78.02	-2676.999	-4524.122	 3628.811	   9.529	 331.842	1.418	    24.157	   227.814	  1108.495	     0.000	     0.000	     1.000	     1.785	     0.020	    75.794	    75.815
 79.02	-2677.176	-4524.382	 3628.929	   9.854	 339.951	1.501	    24.358	   225.699	  1126.411	     0.000	     0.000	     1.000	     1.796	     0.062	    75.381	    75.443
 80.02	-2677.358	-4524.649	 3629.047	  10.186	 348.184	1.589	    24.519	   223.584	  1144.458	     0.000	     0.000	     1.000	     1.807	     0.104	    74.966	    75.070
 81.02	-2677.546	-4524.922	 3629.166	  10.526	 356.546	1.682	    24.638	   221.469	  1162.638	     0.000	     0.000	     1.000	     1.818	     0.021	    74.551	    74.571
 82.02	-2677.739	-4525.202	 3629.286	  10.873	 365.039	1.779	    24.714	   219.354	  1180.953	     0.000	     0.000	     1.000	     1.829	     0.063	    74.133	    74.196
 83.02	-2677.937	-4525.489	 3629.405	  11.228	 373.669	1.881	    24.580	   217.239	  1199.402	     0.000	     0.000	     1.000	     1.842	     0.105	    73.716	    73.820
 84.02	-2678.142	-4525.784	 3629.525	  11.590	 382.443	1.988	    24.326	   215.124	  1217.989	     0.000	     0.000	     1.000	     1.854	     0.021	    73.297	    73.318
 85.02	-2678.352	-4526.085	 3629.646	  11.960	 391.364	2.100	    24.039	   213.009	  1236.712	     0.000	     0.000	     1.000	     1.867	     0.063	    72.878	    72.941
 86.02	-2678.568	-4526.394	 3629.766	  12.338	 400.439	2.218	    23.720	   210.895	  1255.573	     0.000	     0.000	     1.000	     1.881	     0.105	    72.459	    72.564
 87.02	-2678.790	-4526.711	 3629.886	  12.723	 409.670	2.341	    23.370	   208.780	  1274.574	     0.000	     0.000	     1.000	     1.895	     0.021	    72.041	    72.061
 88.02	-2679.018	-4527.035	 3630.007	  13.117	 419.063	2.470	    22.990	   206.665	  1293.715	     0.000	     0.000	     1.000	     1.909	     0.063	    71.622	    71.684
 89.02	-2679.252	-4527.366	 3630.127	  13.518	 428.621	2.605	    22.584	   204.550	  1312.997	     0.000	     0.000	     1.000	     1.924	     0.105	    71.203	    71.308
 90.02	-2679.493	-4527.706	 3630.247	  13.928	 438.350	2.746	    22.151	   202.435	  1332.421	     0.000	     0.000	     1.000	     1.939	     0.021	    70.785	    70.806
 91.02	-2679.740	-4528.053	 3630.366	  14.346	 448.253	2.893	    21.694	   200.320	  1351.988	     0.000	     0.000	     1.000	     1.954	     0.063	    70.368	    70.430
 92.02	-2679.995	-4528.409	 3630.485	  14.772	 458.334	3.047	    21.215	   198.205	  1371.700	     0.000	     0.000	     1.000	     1.970	     0.104	    69.951	    70.056
 93.02	-2680.255	-4528.773	 3630.604	  15.206	 468.598	3.207	    20.715	   196.090	  1391.558	     0.000	     0.000	     1.000	     1.986	     0.021	    69.536	    69.557
 94.02	-2680.523	-4529.145	 3630.722	  15.649	 479.049	3.374	    20.196	   193.975	  1411.562	     0.000	     0.000	     1.000	     2.003	     0.062	    69.122	    69.184
 95.02	-2680.798	-4529.526	 3630.840	  16.101	 489.690	3.547	    19.660	   191.861	  1431.714	     0.000	     0.000	     1.000	     2.020	     0.103	    68.709	    68.812
 96.02	-2681.080	-4529.915	 3630.956	  16.561	 500.525	3.728	    19.109	   189.746	  1452.016	     0.000	     0.000	     1.000	     2.037	     0.020	    68.298	    68.319
 97.02	-2681.370	-4530.313	 3631.072	  17.031	 511.556	3.917	    18.545	   187.631	  1472.467	     0.000	     0.000	     1.000	     2.054	     0.062	    67.888	    67.950
 98.02	-2681.667	-4530.720	 3631.187	  17.509	 522.786	4.112	    17.969	   185.516	  1493.071	     0.000	     0.000	     1.000	     2.072	     0.102	    67.481	    67.583
 99.02	-2681.972	-4531.137	 3631.301	  17.996	 534.219	4.316	    17.383	   183.401	  1513.828	     0.000	     0.000	     1.000	     2.090	     0.020	    67.075	    67.095
100.02	-2682.284	-4531.562	 3631.413	  18.492	 545.856	4.527	    16.789	   181.286	  1534.740	     0.000	     0.000	     1.000	     2.108	     0.061	    66.672	    66.732
101.02	-2682.605	-4531.997	 3631.524	  18.998	 557.700	4.747	    16.190	   179.171	  1555.808	     0.000	     0.000	     1.000	     2.126	     0.100	    66.270	    66.371
102.02	-2682.934	-4532.441	 3631.634	  19.513	 569.753	4.975	    15.586	   177.056	  1577.034	     0.000	     0.000	     1.000	     2.145	     0.020	    65.871	    65.891
103.02	-2683.271	-4532.895	 3631.743	  20.037	 582.016	5.211	    14.979	   174.941	  1598.419	     0.000	     0.000	     1.000	     2.163	     0.060	    65.475	    65.534
104.02	-2683.616	-4533.358	 3631.850	  20.571	 594.492	5.457	    14.312	   172.827	  1619.965	     0.000	     0.000	     1.000	     2.182	     0.099	    65.081	    65.179
105.02	-2683.970	-4533.832	 3631.955	  21.115	 607.182	5.711	    13.650	   170.712	  1641.674	     0.000	     0.000	     1.000	     2.201	     0.019	    64.689	    64.709
106.02	-2684.332	-4534.316	 3632.058	  21.668	 620.087	5.974	    12.996	   168.597	  1663.547	     0.000	     0.000	     1.000	     2.220	     0.058	    64.301	    64.359
107.02	-2684.704	-4534.809	 3632.160	  22.232	 633.210	6.247	    12.351	   166.482	  1685.587	     0.000	     0.000	     1.000	     2.239	     0.097	    63.915	    64.011
108.02	-2685.084	-4535.314	 3632.259	  22.805	 646.550	6.529	    11.717	   164.367	  1707.795	     0.000	     0.000	     1.000	     2.258	     0.019	    63.532	    63.551
109.02	-2685.474	-4535.828	 3632.357	  23.389	 660.109	6.821	    11.095	   162.252	  1730.173	     0.000	     0.000	     1.000	     2.277	     0.038	    63.152	    63.190
110.02	-2685.873	-4536.354	 3632.452	  23.982	 673.888	7.123	    10.487	   160.137	  1752.724	     0.000	     0.000	     1.000	     2.297	     0.019	    62.776	    62.794
