#Time	x(km)		y(km)		z(km)		alt(km)	    relVel		dwnrng(km)	 Q(kPa)	   Fuel(tons) dV_tot	  dV_grav	  dv_drag		 throttle	accel (g's)
-59.10	-2672.329	-4516.862	 3624.534	   0.000	   0.000	0.000	     0.000	   385.000	     0.000	     0.000	     0.000	     0.000	     0.000
-58.10	-2672.329	-4516.862	 3624.534	   0.000	   0.000	0.000	     0.000	   385.000	     0.000	     0.000	     0.000	     0.000	     0.000
-57.10	-2672.329	-4516.862	 3624.534	   0.000	   0.000	0.000	     0.000	   385.000	     0.000	     0.000	     0.000	     0.000	     0.000
-56.10	-2672.329	-4516.862	 3624.534	   0.000	   0.000	0.000	     0.000	   385.000	     0.000	     0.000	     0.000	     0.000	     0.000
-55.10	-2672.329	-4516.862	 3624.534	   0.000	   0.000	0.000	     0.000	   385.000	     0.000	     0.000	     0.000	     0.000	     0.000
-54.10	-2672.329	-4516.862	 3624.534	   0.000	   0.000	0.000	     0.000	   385.000	     0.000	     0.000	     0.000	     0.000	     0.000
-53.10	-2672.329	-4516.862	 3624.534	   0.000	   0.000	0.000	     0.000	   385.000	     0.000	     0.000	     0.000	     0.000	     0.000
-52.10	-2672.329	-4516.862	 3624.534	   0.000	   0.000	0.000	     0.000	   385.000	     0.000	     0.000	     0.000	     0.000	     0.000
-51.10	-2672.329	-4516.862	 3624.534	   0.000	   0.000	0.000	     0.000	   385.000	     0.000	     0.000	     0.000	     0.000	     0.000
-50.10	-2672.329	-4516.862	 3624.534	   0.000	   0.000	0.000	     0.000	   385.000	     0.000	     0.000	     0.000	     0.000	     0.000
-49.10	-2672.329	-4516.862	 3624.534	   0.000	   0.000	0.000	     0.000	   385.000	     0.000	     0.000	     0.000	     0.000	     0.000
-48.10	-2672.329	-4516.862	 3624.534	   0.000	   0.000	0.000	     0.000	   385.000	     0.000	     0.000	     0.000	     0.000	     0.000
-47.10	-2672.329	-4516.862	 3624.534	   0.000	   0.000	0.000	     0.000	   385.000	     0.000	     0.000	     0.000	     0.000	     0.000
-46.10	-2672.329	-4516.862	 3624.534	   0.000	   0.000	0.000	     0.000	   385.000	     0.000	     0.000	     0.000	     0.000	     0.000
-45.10	-2672.329	-4516.862	 3624.534	   0.000	   0.000	0.000	     0.000	   385.000	     0.000	     0.000	     0.000	     0.000	     0.000
-44.10	-2672.329	-4516.862	 3624.534	   0.000	   0.000	0.000	     0.000	   385.000	     0.000	     0.000	     0.000	     0.000	     0.000
-43.10	-2672.329	-4516.862	 3624.534	   0.000	   0.000	0.000	     0.000	   385.000	     0.000	     0.000	     0.000	     0.000	     0.000
-42.10	-2672.329	-4516.862	 3624.534	   0.000	   0.000	0.000	     0.000	   385.000	     0.000	     0.000	     0.000	     0.000	     0.000
-41.10	-2672.329	-4516.862	 3624.534	   0.000	   0.000	0.000	     0.000	   385.000	     0.000	     0.000	     0.000	     0.000	     0.000
-40.10	-2672.329	-4516.862	 3624.534	   0.000	   0.000	0.000	     0.000	   385.000	     0.000	     0.000	     0.000	     0.000	     0.000
-39.10	-2672.329	-4516.862	 3624.534	   0.000	   0.000	0.000	     0.000	   385.000	     0.000	     0.000	     0.000	     0.000	     0.000
-38.10	-2672.329	-4516.862	 3624.534	   0.000	   0.000	0.000	     0.000	   385.000	     0.000	     0.000	     0.000	     0.000	     0.000
-37.10	-2672.329	-4516.862	 3624.534	   0.000	   0.000	0.000	     0.000	   385.000	     0.000	     0.000	     0.000	     0.000	     0.000
-36.10	-2672.329	-4516.862	 3624.534	   0.000	   0.000	0.000	     0.000	   385.000	     0.000	     0.000	     0.000	     0.000	     0.000
-35.10	-2672.329	-4516.862	 3624.534	   0.000	   0.000	0.000	     0.000	   385.000	     0.000	     0.000	     0.000	     0.000	     0.000
-34.10	-2672.329	-4516.862	 3624.534	   0.000	   0.000	0.000	     0.000	   385.000	     0.000	     0.000	     0.000	     0.000	     0.000
-33.10	-2672.329	-4516.862	 3624.534	   0.000	   0.000	0.000	     0.000	   385.000	     0.000	     0.000	     0.000	     0.000	     0.000
-32.10	-2672.329	-4516.862	 3624.534	   0.000	   0.000	0.000	     0.000	   385.000	     0.000	     0.000	     0.000	     0.000	     0.000
-31.10	-2672.329	-4516.862	 3624.534	   0.000	   0.000	0.000	     0.000	   385.000	     0.000	     0.000	     0.000	     0.000	     0.000
-30.10	-2672.329	-4516.862	 3624.534	   0.000	   0.000	0.000	     0.000	   385.000	     0.000	     0.000	     0.000	     0.000	     0.000
-29.10	-2672.329	-4516.862	 3624.534	   0.000	   0.000	0.000	     0.000	   385.000	     0.000	     0.000	     0.000	     0.000	     0.000
-28.10	-2672.329	-4516.862	 3624.534	   0.000	   0.000	0.000	     0.000	   385.000	     0.000	     0.000	     0.000	     0.000	     0.000
-27.10	-2672.329	-4516.862	 3624.534	   0.000	   0.000	0.000	     0.000	   385.000	     0.000	     0.000	     0.000	     0.000	     0.000
-26.10	-2672.329	-4516.862	 3624.534	   0.000	   0.000	0.000	     0.000	   385.000	     0.000	     0.000	     0.000	     0.000	     0.000
-25.10	-2672.329	-4516.862	 3624.534	   0.000	   0.000	0.000	     0.000	   385.000	     0.000	     0.000	     0.000	     0.000	     0.000
-24.10	-2672.329	-4516.862	 3624.534	   0.000	   0.000	0.000	     0.000	   385.000	     0.000	     0.000	     0.000	     0.000	     0.000
-23.10	-2672.329	-4516.862	 3624.534	   0.000	   0.000	0.000	     0.000	   385.000	     0.000	     0.000	     0.000	     0.000	     0.000
-22.10	-2672.329	-4516.862	 3624.534	   0.000	   0.000	0.000	     0.000	   385.000	     0.000	     0.000	     0.000	     0.000	     0.000
-21.10	-2672.329	-4516.862	 3624.534	   0.000	   0.000	0.000	     0.000	   385.000	     0.000	     0.000	     0.000	     0.000	     0.000
-20.10	-2672.329	-4516.862	 3624.534	   0.000	   0.000	0.000	     0.000	   385.000	     0.000	     0.000	     0.000	     0.000	     0.000
-19.10	-2672.329	-4516.862	 3624.534	   0.000	   0.000	0.000	     0.000	   385.000	     0.000	     0.000	     0.000	     0.000	     0.000
-18.10	-2672.329	-4516.862	 3624.534	   0.000	   0.000	0.000	     0.000	   385.000	     0.000	     0.000	     0.000	     0.000	     0.000
-17.10	-2672.329	-4516.862	 3624.534	   0.000	   0.000	0.000	     0.000	   385.000	     0.000	     0.000	     0.000	     0.000	     0.000
-16.10	-2672.329	-4516.862	 3624.534	   0.000	   0.000	0.000	     0.000	   385.000	     0.000	     0.000	     0.000	     0.000	     0.000
-15.10	-2672.329	-4516.862	 3624.534	   0.000	   0.000	0.000	     0.000	   385.000	     0.000	     0.000	     0.000	     0.000	     0.000
-14.10	-2672.329	-4516.862	 3624.534	   0.000	   0.000	0.000	     0.000	   385.000	     0.000	     0.000	     0.000	     0.000	     0.000
-13.10	-2672.329	-4516.862	 3624.534	   0.000	   0.000	0.000	     0.000	   385.000	     0.000	     0.000	     0.000	     0.000	     0.000
-12.10	-2672.329	-4516.862	 3624.534	   0.000	   0.000	0.000	     0.000	   385.000	     0.000	     0.000	     0.000	     0.000	     0.000
-11.10	-2672.329	-4516.862	 3624.534	   0.000	   0.000	0.000	     0.000	   385.000	     0.000	     0.000	     0.000	     0.000	     0.000
-10.10	-2672.329	-4516.862	 3624.534	   0.000	   0.000	0.000	     0.000	   385.000	     0.000	     0.000	     0.000	     0.000	     0.000
 -9.10	-2672.329	-4516.862	 3624.534	   0.000	   0.000	0.000	     0.000	   385.000	     0.000	     0.000	     0.000	     0.000	     0.000
 -8.10	-2672.329	-4516.862	 3624.534	   0.000	   0.000	0.000	     0.000	   385.000	     0.000	     0.000	     0.000	     0.000	     0.000
 -7.10	-2672.329	-4516.862	 3624.534	   0.000	   0.000	0.000	     0.000	   385.000	     0.000	     0.000	     0.000	     0.000	     0.000
 -6.10	-2672.329	-4516.862	 3624.534	   0.000	   0.000	0.000	     0.000	   385.000	     0.000	     0.000	     0.000	     0.000	     0.000
 -5.10	-2672.329	-4516.862	 3624.534	   0.000	   0.000	0.000	     0.000	   385.000	     0.000	     0.000	     0.000	     0.000	     0.000
 -4.10	-2672.329	-4516.862	 3624.534	   0.000	   0.000	0.000	     0.000	   385.000	     0.000	     0.000	     0.000	     0.000	     0.000
 -3.10	-2672.329	-4516.862	 3624.534	   0.000	   0.000	0.000	     0.000	   385.000	     0.000	     0.000	     0.000	     0.000	     0.000
 -2.10	-2672.329	-4516.862	 3624.534	   0.000	   0.000	0.000	     0.000	   385.000	     0.000	     0.000	     0.000	     0.000	     0.000
 -1.10	-2672.329	-4516.862	 3624.534	   0.000	   0.000	0.000	     0.000	   383.097	    10.406	     0.000	     0.000	     1.000	     0.000
 -0.10	-2672.329	-4516.862	 3624.534	   0.000	   0.000	0.000	     0.000	   380.982	    22.015	     0.000	     0.000	     1.000	     0.000
  0.00	-2672.329	-4516.862	 3624.534	   0.000	   0.000	0.000	     0.000	   380.770	    23.178	     0.000	     0.000	     1.000	     0.000
  1.00	-2672.329	-4516.863	 3624.534	   0.001	   1.704	0.000	     0.001	   378.867	    33.672	     0.000	     0.000	     1.000	     0.192
  2.00	-2672.331	-4516.865	 3624.536	   0.004	   3.640	0.000	     0.007	   376.752	    45.379	     0.000	     0.000	     1.000	     0.198
  3.00	-2672.333	-4516.868	 3624.538	   0.008	   5.625	0.000	     0.018	   374.637	    57.137	     0.000	     0.000	     1.000	     0.203
  4.00	-2672.336	-4516.873	 3624.542	   0.015	   7.662	0.000	     0.034	   372.522	    68.945	     0.000	     0.000	     1.000	     0.208
  5.00	-2672.340	-4516.879	 3624.547	   0.024	   9.751	0.001	     0.056	   370.407	    80.806	     0.000	     0.000	     1.000	     0.213
  6.00	-2672.345	-4516.887	 3624.554	   0.035	  11.892	0.001	     0.084	   368.292	    92.719	     0.000	     0.000	     1.000	     0.219
  7.00	-2672.350	-4516.896	 3624.561	   0.048	  14.086	0.001	     0.118	   366.178	   104.685	     0.000	     0.000	     1.000	     0.224
  8.00	-2672.357	-4516.907	 3624.570	   0.063	  16.334	0.002	     0.159	   364.063	   116.705	     0.000	     0.000	     1.000	     0.230
  9.00	-2672.365	-4516.920	 3624.579	   0.081	  18.637	0.002	     0.207	   361.948	   128.781	     0.000	     0.000	     1.000	     0.235
 10.00	-2672.374	-4516.934	 3624.590	   0.101	  20.996	0.002	     0.263	   359.833	   140.912	     0.000	     0.000	     1.000	     0.241
 11.00	-2672.384	-4516.950	 3624.603	   0.123	  23.412	0.003	     0.327	   357.718	   153.099	     0.000	     0.000	     1.000	     0.247
 12.00	-2672.395	-4516.968	 3624.616	   0.148	  25.884	0.004	     0.400	   355.603	   165.344	     0.000	     0.000	     1.000	     0.253
 13.00	-2672.407	-4516.987	 3624.631	   0.175	  28.415	0.005	     0.481	   353.488	   177.648	     0.000	     0.000	     1.000	     0.259
 14.00	-2672.420	-4517.009	 3624.648	   0.205	  31.004	0.005	     0.572	   351.373	   190.010	     0.000	     0.000	     1.000	     0.265
 15.00	-2672.434	-4517.032	 3624.665	   0.237	  33.653	0.007	     0.672	   349.258	   202.433	     0.000	     0.000	     1.000	     0.271
 16.00	-2672.450	-4517.057	 3624.684	   0.273	  36.362	0.008	     0.783	   347.144	   214.916	     0.000	     0.000	     1.000	     0.277
 17.00	-2672.467	-4517.084	 3624.705	   0.310	  39.133	0.009	     0.904	   345.029	   227.461	     0.000	     0.000	     1.000	     0.283
 18.00	-2672.484	-4517.114	 3624.727	   0.351	  41.966	0.010	     1.036	   342.914	   240.070	     0.000	     0.000	     1.000	     0.290
 19.00	-2672.504	-4517.145	 3624.751	   0.395	  44.861	0.012	     1.180	   340.799	   252.742	     0.000	     0.000	     1.000	     0.296
 20.00	-2672.524	-4517.179	 3624.776	   0.441	  47.821	0.014	     1.335	   338.684	   265.479	     0.000	     0.000	     1.000	     0.303
 21.00	-2672.546	-4517.214	 3624.803	   0.490	  50.846	0.015	     1.503	   336.569	   278.281	     0.000	     0.000	     1.000	     0.309
 22.00	-2672.569	-4517.252	 3624.831	   0.543	  53.936	0.017	     1.683	   334.454	   291.151	     0.000	     0.000	     1.000	     0.316
 23.00	-2672.594	-4517.292	 3624.861	   0.599	  57.093	0.019	     1.877	   332.339	   304.089	     0.000	     0.000	     1.000	     0.323
 24.00	-2672.620	-4517.335	 3624.893	   0.657	  60.318	0.022	     2.084	   330.224	   317.095	     0.000	     0.000	     1.000	     0.330
 25.00	-2672.647	-4517.379	 3624.926	   0.719	  63.612	0.024	     2.304	   328.110	   330.172	     0.000	     0.000	     1.000	     0.337
 26.00	-2672.676	-4517.427	 3624.962	   0.785	  66.975	0.026	     2.539	   325.995	   343.319	     0.000	     0.000	     1.000	     0.344
 27.00	-2672.706	-4517.476	 3624.999	   0.854	  70.410	0.029	     2.788	   323.880	   356.539	     0.000	     0.000	     1.000	     0.351
 28.00	-2672.738	-4517.528	 3625.038	   0.926	  73.916	0.032	     3.052	   321.765	   369.832	     0.000	     0.000	     1.000	     0.359
 29.00	-2672.771	-4517.583	 3625.079	   1.002	  77.495	0.034	     3.331	   319.650	   383.200	     0.000	     0.000	     1.000	     0.366
 30.00	-2672.806	-4517.640	 3625.122	   1.081	  81.148	0.037	     3.625	   317.535	   396.644	     0.000	     0.000	     1.000	     0.374
 31.00	-2672.843	-4517.700	 3625.167	   1.164	  84.876	0.041	     3.934	   315.420	   410.164	     0.000	     0.000	     1.000	     0.382
 32.00	-2672.881	-4517.763	 3625.214	   1.251	  88.680	0.044	     4.259	   313.305	   423.762	     0.000	     0.000	     1.000	     0.389
 33.00	-2672.921	-4517.828	 3625.263	   1.342	  92.561	0.047	     4.599	   311.190	   437.440	     0.000	     0.000	     1.000	     0.397
 34.00	-2672.963	-4517.897	 3625.314	   1.437	  96.521	0.051	     4.955	   309.076	   451.198	     0.000	     0.000	     1.000	     0.405
 35.00	-2673.006	-4517.968	 3625.367	   1.535	 100.561	0.054	     5.327	   306.961	   465.038	     0.000	     0.000	     1.000	     0.414
 36.00	-2673.052	-4518.042	 3625.423	   1.638	 104.681	0.058	     5.715	   304.846	   478.961	     0.000	     0.000	     1.000	     0.422
 37.00	-2673.099	-4518.119	 3625.481	   1.745	 108.883	0.062	     6.119	   302.731	   492.968	     0.000	     0.000	     1.000	     0.430
 38.00	-2673.148	-4518.199	 3625.541	   1.856	 113.168	0.066	     6.538	   300.616	   507.060	     0.000	     0.000	     1.000	     0.439
 39.00	-2673.198	-4518.282	 3625.603	   1.972	 117.537	0.070	     6.972	   298.501	   521.239	     0.000	     0.000	     1.000	     0.448
 40.00	-2673.251	-4518.368	 3625.668	   2.092	 121.992	0.075	     7.421	   296.386	   535.507	     0.000	     0.000	     1.000	     0.456
 41.00	-2673.306	-4518.458	 3625.735	   2.216	 126.533	0.079	     7.886	   294.271	   549.864	     0.000	     0.000	     1.000	     0.465
 42.00	-2673.363	-4518.551	 3625.805	   2.345	 131.163	0.084	     8.365	   292.156	   564.311	     0.000	     0.000	     1.000	     0.474
 43.00	-2673.421	-4518.647	 3625.878	   2.479	 135.882	0.089	     8.857	   290.042	   578.851	     0.000	     0.000	     1.000	     0.483
 44.00	-2673.482	-4518.747	 3625.952	   2.617	 140.691	0.094	     9.364	   287.927	   593.484	     0.000	     0.000	     1.000	     0.493
 45.00	-2673.545	-4518.850	 3626.030	   2.760	 145.592	0.099	     9.883	   285.812	   608.212	     0.000	     0.000	     1.000	     0.502
 46.00	-2673.611	-4518.956	 3626.110	   2.909	 150.587	0.104	    10.414	   283.697	   623.036	     0.000	     0.000	     1.000	     0.512
 47.00	-2673.678	-4519.067	 3626.193	   3.062	 155.676	0.109	    10.957	   281.582	   637.958	     0.000	     0.000	     1.000	     0.521
 48.00	-2673.748	-4519.181	 3626.279	   3.220	 160.860	0.115	    11.510	   279.467	   652.978	     0.000	     0.000	     1.000	     0.531
 49.00	-2673.820	-4519.298	 3626.368	   3.384	 166.142	0.121	    12.073	   277.352	   668.099	     0.000	     0.000	     1.000	     0.541
 50.00	-2673.894	-4519.420	 3626.460	   3.553	 171.520	0.126	    12.644	   275.237	   683.321	     0.000	     0.000	     1.000	     0.551
 51.00	-2673.971	-4519.545	 3626.554	   3.727	 176.994	0.133	    13.222	   273.122	   698.647	     0.000	     0.000	     1.000	     0.561
 52.00	-2674.050	-4519.674	 3626.652	   3.907	 182.567	0.139	    13.806	   271.008	   714.077	     0.000	     0.000	     1.000	     0.571
 53.00	-2674.131	-4519.808	 3626.753	   4.093	 188.239	0.145	    14.393	   268.893	   729.613	     0.000	     0.000	     1.000	     0.581
 54.00	-2674.216	-4519.945	 3626.857	   4.284	 194.012	0.152	    14.984	   266.778	   745.256	     0.000	     0.000	     1.000	     0.591
 55.00	-2674.302	-4520.087	 3626.964	   4.481	 199.886	0.158	    15.576	   264.663	   761.008	     0.000	     0.000	     1.000	     0.602
 56.00	-2674.392	-4520.233	 3627.074	   4.684	 205.867	0.165	    16.168	   262.548	   776.869	     0.000	     0.000	     1.000	     0.614
 57.00	-2674.484	-4520.383	 3627.187	   4.893	 211.953	0.173	    16.758	   260.433	   792.843	     0.000	     0.000	     1.000	     0.625
 58.00	-2674.579	-4520.538	 3627.303	   5.109	 218.143	0.181	    17.344	   258.318	   808.929	     0.000	     0.000	     1.000	     0.636
 59.00	-2674.677	-4520.697	 3627.423	   5.330	 224.440	0.190	    17.924	   256.203	   825.129	     0.000	     0.000	     1.000	     0.647
 60.00	-2674.779	-4520.861	 3627.545	   5.558	 230.845	0.200	    18.496	   254.088	   841.445	     0.000	     0.000	     1.000	     0.658
 61.00	-2674.883	-4521.030	 3627.670	   5.792	 237.358	0.210	    19.058	   251.974	   857.878	     0.000	     0.000	     1.000	     0.669
 62.00	-2674.991	-4521.203	 3627.799	   6.033	 243.980	0.221	    19.607	   249.859	   874.430	     0.000	     0.000	     1.000	     0.680
 63.00	-2675.102	-4521.381	 3627.931	   6.280	 250.713	0.233	    20.143	   247.744	   891.101	     0.000	     0.000	     1.000	     0.692
 64.00	-2675.216	-4521.565	 3628.066	   6.534	 257.559	0.245	    20.661	   245.629	   907.893	     0.000	     0.000	     1.000	     0.703
 65.00	-2675.334	-4521.753	 3628.204	   6.795	 264.517	0.259	    21.160	   243.514	   924.808	     0.000	     0.000	     1.000	     0.715
 66.00	-2675.455	-4521.947	 3628.345	   7.063	 271.589	0.273	    21.638	   241.399	   941.847	     0.000	     0.000	     1.000	     0.727
 67.00	-2675.580	-4522.146	 3628.490	   7.338	 278.777	0.289	    22.092	   239.284	   959.011	     0.000	     0.000	     1.000	     0.739
 68.00	-2675.708	-4522.350	 3628.638	   7.621	 286.081	0.305	    22.520	   237.169	   976.301	     0.000	     0.000	     1.000	     0.751
 69.00	-2675.841	-4522.560	 3628.790	   7.910	 293.503	0.323	    22.919	   235.054	   993.719	     0.000	     0.000	     1.000	     0.763
 70.00	-2675.977	-4522.775	 3628.945	   8.207	 301.045	0.341	    23.287	   232.940	  1011.266	     0.000	     0.000	     1.000	     0.775
 71.00	-2676.117	-4522.996	 3629.103	   8.512	 308.706	0.361	    23.622	   230.825	  1028.944	     0.000	     0.000	     1.000	     0.788
 72.00	-2676.260	-4523.222	 3629.265	   8.824	 316.490	0.382	    23.921	   228.710	  1046.754	     0.000	     0.000	     1.000	     0.800
 73.00	-2676.408	-4523.454	 3629.431	   9.144	 324.397	0.404	    24.182	   226.595	  1064.696	     0.000	     0.000	     1.000	     0.813
 74.00	-2676.560	-4523.692	 3629.600	   9.472	 332.428	0.427	    24.403	   224.480	  1082.773	     0.000	     0.000	     1.000	     0.826
 75.00	-2676.716	-4523.937	 3629.773	   9.808	 340.586	0.451	    24.582	   222.365	  1100.985	     0.000	     0.000	     1.000	     0.839
 76.00	-2676.877	-4524.187	 3629.949	  10.153	 348.871	0.477	    24.716	   220.250	  1119.334	     0.000	     0.000	     1.000	     0.853
 77.00	-2677.042	-4524.443	 3630.129	  10.505	 357.286	0.505	    24.805	   218.135	  1137.822	     0.000	     0.000	     1.000	     0.866
 78.00	-2677.211	-4524.706	 3630.312	  10.866	 365.831	0.533	    24.846	   216.021	  1156.448	     0.000	     0.000	     1.000	     0.880
 79.00	-2677.385	-4524.975	 3630.500	  11.235	 374.511	0.564	    24.681	   213.906	  1175.215	     0.000	     0.000	     1.000	     0.894
 80.00	-2677.563	-4525.250	 3630.691	  11.613	 383.329	0.595	    24.371	   211.791	  1194.124	     0.000	     0.000	     1.000	     0.908
 81.00	-2677.746	-4525.532	 3630.886	  12.000	 392.287	0.629	    24.024	   209.676	  1213.175	     0.000	     0.000	     1.000	     0.922
 82.00	-2677.934	-4525.821	 3631.084	  12.396	 401.387	0.664	    23.641	   207.561	  1232.370	     0.000	     0.000	     1.000	     0.937
