#Time	x(km)		y(km)		z(km)		alt(km)	    relVel		dwnrng(km)	 Q(kPa)	   Fuel(tons) dV_tot	  dV_grav	  dv_drag		 throttle	accel (g's)
-59.10	  917.850	-5526.323	 3049.252	   0.000	   0.000	0.000	     0.000	   385.000	     0.000	     0.000	     0.000	     0.000	     0.000
-58.10	  917.850	-5526.323	 3049.252	   0.000	   0.000	0.000	     0.000	   385.000	     0.000	     0.000	     0.000	     0.000	     0.000
-57.10	  917.850	-5526.323	 3049.252	   0.000	   0.000	0.000	     0.000	   385.000	     0.000	     0.000	     0.000	     0.000	     0.000
-56.10	  917.850	-5526.323	 3049.252	   0.000	   0.000	0.000	     0.000	   385.000	     0.000	     0.000	     0.000	     0.000	     0.000
-55.10	  917.850	-5526.323	 3049.252	   0.000	   0.000	0.000	     0.000	   385.000	     0.000	     0.000	     0.000	     0.000	     0.000
-54.10	  917.850	-5526.323	 3049.252	   0.000	   0.000	0.000	     0.000	   385.000	     0.000	     0.000	     0.000	     0.000	     0.000
-53.10	  917.850	-5526.323	 3049.252	   0.000	   0.000	0.000	     0.000	   385.000	     0.000	     0.000	     0.000	     0.000	     0.000
-52.10	  917.850	-5526.323	 3049.252	   0.000	   0.000	0.000	     0.000	   385.000	     0.000	     0.000	     0.000	     0.000	     0.000
-51.10	  917.850	-5526.323	 3049.252	   0.000	   0.000	0.000	     0.000	   385.000	     0.000	     0.000	     0.000	     0.000	     0.000
-50.10	  917.850	-5526.323	 3049.252	   0.000	   0.000	0.000	     0.000	   385.000	     0.000	     0.000	     0.000	     0.000	     0.000
-49.10	  917.850	-5526.323	 3049.252	   0.000	   0.000	0.000	     0.000	   385.000	     0.000	     0.000	     0.000	     0.000	     0.000
-48.10	  917.850	-5526.323	 3049.252	   0.000	   0.000	0.000	     0.000	   385.000	     0.000	     0.000	     0.000	     0.000	     0.000
-47.10	  917.850	-5526.323	 3049.252	   0.000	   0.000	0.000	     0.000	   385.000	     0.000	     0.000	     0.000	     0.000	     0.000
-46.10	  917.850	-5526.323	 3049.252	   0.000	   0.000	0.000	     0.000	   385.000	     0.000	     0.000	     0.000	     0.000	     0.000
-45.10	  917.850	-5526.323	 3049.252	   0.000	   0.000	0.000	     0.000	   385.000	     0.000	     0.000	     0.000	     0.000	     0.000
-44.10	  917.850	-5526.323	 3049.252	   0.000	   0.000	0.000	     0.000	   385.000	     0.000	     0.000	     0.000	     0.000	     0.000
-43.10	  917.850	-5526.323	 3049.252	   0.000	   0.000	0.000	     0.000	   385.000	     0.000	     0.000	     0.000	     0.000	     0.000
-42.10	  917.850	-5526.323	 3049.252	   0.000	   0.000	0.000	     0.000	   385.000	     0.000	     0.000	     0.000	     0.000	     0.000
-41.10	  917.850	-5526.323	 3049.252	   0.000	   0.000	0.000	     0.000	   385.000	     0.000	     0.000	     0.000	     0.000	     0.000
-40.10	  917.850	-5526.323	 3049.252	   0.000	   0.000	0.000	     0.000	   385.000	     0.000	     0.000	     0.000	     0.000	     0.000
-39.10	  917.850	-5526.323	 3049.252	   0.000	   0.000	0.000	     0.000	   385.000	     0.000	     0.000	     0.000	     0.000	     0.000
-38.10	  917.850	-5526.323	 3049.252	   0.000	   0.000	0.000	     0.000	   385.000	     0.000	     0.000	     0.000	     0.000	     0.000
-37.10	  917.850	-5526.323	 3049.252	   0.000	   0.000	0.000	     0.000	   385.000	     0.000	     0.000	     0.000	     0.000	     0.000
-36.10	  917.850	-5526.323	 3049.252	   0.000	   0.000	0.000	     0.000	   385.000	     0.000	     0.000	     0.000	     0.000	     0.000
-35.10	  917.850	-5526.323	 3049.252	   0.000	   0.000	0.000	     0.000	   385.000	     0.000	     0.000	     0.000	     0.000	     0.000
-34.10	  917.850	-5526.323	 3049.252	   0.000	   0.000	0.000	     0.000	   385.000	     0.000	     0.000	     0.000	     0.000	     0.000
-33.10	  917.850	-5526.323	 3049.252	   0.000	   0.000	0.000	     0.000	   385.000	     0.000	     0.000	     0.000	     0.000	     0.000
-32.10	  917.850	-5526.323	 3049.252	   0.000	   0.000	0.000	     0.000	   385.000	     0.000	     0.000	     0.000	     0.000	     0.000
-31.10	  917.850	-5526.323	 3049.252	   0.000	   0.000	0.000	     0.000	   385.000	     0.000	     0.000	     0.000	     0.000	     0.000
-30.10	  917.850	-5526.323	 3049.252	   0.000	   0.000	0.000	     0.000	   385.000	     0.000	     0.000	     0.000	     0.000	     0.000
-29.10	  917.850	-5526.323	 3049.252	   0.000	   0.000	0.000	     0.000	   385.000	     0.000	     0.000	     0.000	     0.000	     0.000
-28.10	  917.850	-5526.323	 3049.252	   0.000	   0.000	0.000	     0.000	   385.000	     0.000	     0.000	     0.000	     0.000	     0.000
-27.10	  917.850	-5526.323	 3049.252	   0.000	   0.000	0.000	     0.000	   385.000	     0.000	     0.000	     0.000	     0.000	     0.000
-26.10	  917.850	-5526.323	 3049.252	   0.000	   0.000	0.000	     0.000	   385.000	     0.000	     0.000	     0.000	     0.000	     0.000
-25.10	  917.850	-5526.323	 3049.252	   0.000	   0.000	0.000	     0.000	   385.000	     0.000	     0.000	     0.000	     0.000	     0.000
-24.10	  917.850	-5526.323	 3049.252	   0.000	   0.000	0.000	     0.000	   385.000	     0.000	     0.000	     0.000	     0.000	     0.000
-23.10	  917.850	-5526.323	 3049.252	   0.000	   0.000	0.000	     0.000	   385.000	     0.000	     0.000	     0.000	     0.000	     0.000
-22.10	  917.850	-5526.323	 3049.252	   0.000	   0.000	0.000	     0.000	   385.000	     0.000	     0.000	     0.000	     0.000	     0.000
-21.10	  917.850	-5526.323	 3049.252	   0.000	   0.000	0.000	     0.000	   385.000	     0.000	     0.000	     0.000	     0.000	     0.000
-20.10	  917.850	-5526.323	 3049.252	   0.000	   0.000	0.000	     0.000	   385.000	     0.000	     0.000	     0.000	     0.000	     0.000
-19.10	  917.850	-5526.323	 3049.252	   0.000	   0.000	0.000	     0.000	   385.000	     0.000	     0.000	     0.000	     0.000	     0.000
-18.10	  917.850	-5526.323	 3049.252	   0.000	   0.000	0.000	     0.000	   385.000	     0.000	     0.000	     0.000	     0.000	     0.000
-17.10	  917.850	-5526.323	 3049.252	   0.000	   0.000	0.000	     0.000	   385.000	     0.000	     0.000	     0.000	     0.000	     0.000
-16.10	  917.850	-5526.323	 3049.252	   0.000	   0.000	0.000	     0.000	   385.000	     0.000	     0.000	     0.000	     0.000	     0.000
-15.10	  917.850	-5526.323	 3049.252	   0.000	   0.000	0.000	     0.000	   385.000	     0.000	     0.000	     0.000	     0.000	     0.000
-14.10	  917.850	-5526.323	 3049.252	   0.000	   0.000	0.000	     0.000	   385.000	     0.000	     0.000	     0.000	     0.000	     0.000
-13.10	  917.850	-5526.323	 3049.252	   0.000	   0.000	0.000	     0.000	   385.000	     0.000	     0.000	     0.000	     0.000	     0.000
-12.10	  917.850	-5526.323	 3049.252	   0.000	   0.000	0.000	     0.000	   385.000	     0.000	     0.000	     0.000	     0.000	     0.000
-11.10	  917.850	-5526.323	 3049.252	   0.000	   0.000	0.000	     0.000	   385.000	     0.000	     0.000	     0.000	     0.000	     0.000
-10.10	  917.850	-5526.323	 3049.252	   0.000	   0.000	0.000	     0.000	   385.000	     0.000	     0.000	     0.000	     0.000	     0.000
 -9.10	  917.850	-5526.323	 3049.252	   0.000	   0.000	0.000	     0.000	   385.000	     0.000	     0.000	     0.000	     0.000	     0.000
 -8.10	  917.850	-5526.323	 3049.252	   0.000	   0.000	0.000	     0.000	   385.000	     0.000	     0.000	     0.000	     0.000	     0.000
 -7.10	  917.850	-5526.323	 3049.252	   0.000	   0.000	0.000	     0.000	   385.000	     0.000	     0.000	     0.000	     0.000	     0.000
 -6.10	  917.850	-5526.323	 3049.252	   0.000	   0.000	0.000	     0.000	   385.000	     0.000	     0.000	     0.000	     0.000	     0.000
 -5.10	  917.850	-5526.323	 3049.252	   0.000	   0.000	0.000	     0.000	   385.000	     0.000	     0.000	     0.000	     0.000	     0.000
 -4.10	  917.850	-5526.323	 3049.252	   0.000	   0.000	0.000	     0.000	   385.000	     0.000	     0.000	     0.000	     0.000	     0.000
 -3.10	  917.850	-5526.323	 3049.252	   0.000	   0.000	0.000	     0.000	   385.000	     0.000	     0.000	     0.000	     0.000	     0.000
 -2.10	  917.850	-5526.323	 3049.252	   0.000	   0.000	0.000	     0.000	   385.000	     0.000	     0.000	     0.000	     0.000	     0.000
 -1.10	  917.850	-5526.323	 3049.252	   0.000	   0.000	0.000	     0.000	   383.097	    10.406	     0.000	     0.000	     1.000	     0.000
 -0.10	  917.850	-5526.323	 3049.252	   0.000	   0.000	0.000	     0.000	   380.982	    22.014	     0.000	     0.000	     1.000	     0.000
  0.00	  917.850	-5526.323	 3049.252	   0.000	   0.000	0.000	     0.000	   380.770	    23.177	     0.000	     0.000	     1.000	     0.000
  1.00	  917.850	-5526.324	 3049.252	   0.001	   1.707	0.000	     0.001	   378.867	    33.671	     0.000	     0.000	     1.000	     0.192
  2.00	  917.850	-5526.326	 3049.254	   0.004	   3.645	0.000	     0.007	   376.752	    45.377	     0.000	     0.000	     1.000	     0.197
  3.00	  917.851	-5526.330	 3049.256	   0.008	   5.634	0.000	     0.018	   374.637	    57.134	     0.000	     0.000	     1.000	     0.203
  4.00	  917.852	-5526.336	 3049.259	   0.015	   7.673	0.000	     0.034	   372.522	    68.943	     0.000	     0.000	     1.000	     0.208
  5.00	  917.853	-5526.344	 3049.264	   0.024	   9.765	0.001	     0.056	   370.407	    80.802	     0.000	     0.000	     1.000	     0.213
  6.00	  917.854	-5526.354	 3049.269	   0.035	  11.908	0.001	     0.084	   368.292	    92.715	     0.000	     0.000	     1.000	     0.219
  7.00	  917.856	-5526.365	 3049.275	   0.048	  14.105	0.001	     0.118	   366.178	   104.681	     0.000	     0.000	     1.000	     0.224
  8.00	  917.858	-5526.379	 3049.282	   0.063	  16.333	0.001	     0.159	   364.063	   116.701	     0.000	     0.000	     1.000	     0.239
  9.00	  917.861	-5526.394	 3049.291	   0.081	  18.644	0.000	     0.207	   361.948	   128.776	     0.000	     0.000	     1.000	     0.245
 10.00	  917.865	-5526.411	 3049.302	   0.101	  21.030	0.001	     0.264	   359.833	   140.906	     0.000	     0.000	     1.000	     0.250
 11.00	  917.871	-5526.429	 3049.313	   0.123	  23.485	0.003	     0.329	   357.718	   153.093	     0.000	     0.000	     1.000	     0.256
 12.00	  917.877	-5526.449	 3049.326	   0.148	  26.006	0.006	     0.403	   355.603	   165.338	     0.000	     0.000	     1.000	     0.261
 13.00	  917.884	-5526.472	 3049.341	   0.175	  28.591	0.010	     0.487	   353.488	   177.640	     0.000	     0.000	     1.000	     0.267
 14.00	  917.892	-5526.496	 3049.357	   0.205	  31.240	0.015	     0.580	   351.373	   190.002	     0.000	     0.000	     1.000	     0.273
 15.00	  917.901	-5526.522	 3049.375	   0.237	  33.952	0.020	     0.684	   349.258	   202.424	     0.000	     0.000	     1.000	     0.279
 16.00	  917.911	-5526.550	 3049.394	   0.272	  36.726	0.026	     0.798	   347.144	   214.907	     0.000	     0.000	     1.000	     0.285
 17.00	  917.922	-5526.581	 3049.415	   0.310	  39.563	0.032	     0.924	   345.029	   227.452	     0.000	     0.000	     1.000	     0.291
 18.00	  917.934	-5526.613	 3049.438	   0.350	  42.463	0.040	     1.061	   342.914	   240.059	     0.000	     0.000	     1.000	     0.297
 19.00	  917.947	-5526.648	 3049.462	   0.393	  45.426	0.048	     1.210	   340.799	   252.731	     0.000	     0.000	     1.000	     0.304
 20.00	  917.961	-5526.685	 3049.488	   0.440	  48.454	0.057	     1.371	   338.684	   265.467	     0.000	     0.000	     1.000	     0.310
 21.00	  917.976	-5526.724	 3049.515	   0.489	  51.547	0.067	     1.545	   336.569	   278.269	     0.000	     0.000	     1.000	     0.317
 22.00	  917.992	-5526.765	 3049.545	   0.541	  54.705	0.077	     1.732	   334.454	   291.138	     0.000	     0.000	     1.000	     0.323
 23.00	  918.010	-5526.809	 3049.576	   0.596	  57.929	0.088	     1.932	   332.339	   304.074	     0.000	     0.000	     1.000	     0.330
 24.00	  918.028	-5526.856	 3049.609	   0.655	  61.221	0.100	     2.147	   330.224	   317.080	     0.000	     0.000	     1.000	     0.337
 25.00	  918.048	-5526.905	 3049.644	   0.717	  64.580	0.113	     2.376	   328.110	   330.156	     0.000	     0.000	     1.000	     0.344
 26.00	  918.068	-5526.956	 3049.681	   0.782	  68.009	0.127	     2.619	   325.995	   343.302	     0.000	     0.000	     1.000	     0.351
 27.00	  918.090	-5527.010	 3049.720	   0.850	  71.507	0.141	     2.877	   323.880	   356.521	     0.000	     0.000	     1.000	     0.358
 28.00	  918.113	-5527.067	 3049.760	   0.922	  75.076	0.156	     3.150	   321.765	   369.813	     0.000	     0.000	     1.000	     0.365
 29.00	  918.137	-5527.127	 3049.803	   0.998	  78.717	0.172	     3.438	   319.650	   383.180	     0.000	     0.000	     1.000	     0.373
 30.00	  918.163	-5527.189	 3049.848	   1.077	  82.431	0.188	     3.742	   317.535	   396.622	     0.000	     0.000	     1.000	     0.380
 31.00	  918.189	-5527.255	 3049.895	   1.159	  86.220	0.206	     4.061	   315.420	   410.141	     0.000	     0.000	     1.000	     0.388
 32.00	  918.217	-5527.323	 3049.944	   1.246	  90.083	0.224	     4.397	   313.305	   423.738	     0.000	     0.000	     1.000	     0.395
 33.00	  918.245	-5527.395	 3049.995	   1.336	  94.022	0.243	     4.748	   311.190	   437.414	     0.000	     0.000	     1.000	     0.403
 34.00	  918.275	-5527.469	 3050.048	   1.430	  98.039	0.263	     5.116	   309.076	   451.171	     0.000	     0.000	     1.000	     0.411
 35.00	  918.307	-5527.547	 3050.104	   1.528	 102.134	0.283	     5.499	   306.961	   465.009	     0.000	     0.000	     1.000	     0.419
 36.00	  918.339	-5527.627	 3050.162	   1.631	 106.308	0.305	     5.899	   304.846	   478.930	     0.000	     0.000	     1.000	     0.427
 37.00	  918.373	-5527.712	 3050.222	   1.737	 110.564	0.327	     6.314	   302.731	   492.935	     0.000	     0.000	     1.000	     0.436
 38.00	  918.408	-5527.799	 3050.285	   1.848	 114.901	0.350	     6.745	   300.616	   507.026	     0.000	     0.000	     1.000	     0.444
 39.00	  918.445	-5527.890	 3050.350	   1.962	 119.321	0.374	     7.192	   298.501	   521.203	     0.000	     0.000	     1.000	     0.453
 40.00	  918.482	-5527.985	 3050.417	   2.082	 123.826	0.398	     7.654	   296.386	   535.469	     0.000	     0.000	     1.000	     0.461
 41.00	  918.521	-5528.083	 3050.487	   2.205	 128.417	0.424	     8.131	   294.271	   549.823	     0.000	     0.000	     1.000	     0.470
 42.00	  918.562	-5528.184	 3050.559	   2.334	 133.094	0.450	     8.623	   292.156	   564.269	     0.000	     0.000	     1.000	     0.479
 43.00	  918.603	-5528.290	 3050.634	   2.467	 137.859	0.477	     9.128	   290.042	   578.806	     0.000	     0.000	     1.000	     0.488
 44.00	  918.646	-5528.399	 3050.712	   2.605	 142.714	0.505	     9.648	   287.927	   593.437	     0.000	     0.000	     1.000	     0.497
 45.00	  918.691	-5528.512	 3050.792	   2.747	 147.660	0.533	    10.180	   285.812	   608.163	     0.000	     0.000	     1.000	     0.507
 46.00	  918.736	-5528.629	 3050.875	   2.895	 152.698	0.563	    10.724	   283.697	   622.984	     0.000	     0.000	     1.000	     0.516
 47.00	  918.784	-5528.750	 3050.961	   3.047	 157.829	0.593	    11.280	   281.582	   637.903	     0.000	     0.000	     1.000	     0.526
 48.00	  918.832	-5528.875	 3051.050	   3.205	 163.056	0.625	    11.846	   279.467	   652.921	     0.000	     0.000	     1.000	     0.536
 49.00	  918.882	-5529.005	 3051.141	   3.368	 168.377	0.657	    12.422	   277.352	   668.039	     0.000	     0.000	     1.000	     0.545
 50.00	  918.934	-5529.139	 3051.236	   3.536	 173.793	0.690	    13.005	   275.237	   683.258	     0.000	     0.000	     1.000	     0.555
 51.00	  918.987	-5529.277	 3051.333	   3.709	 179.304	0.723	    13.596	   273.122	   698.581	     0.000	     0.000	     1.000	     0.565
 52.00	  919.042	-5529.419	 3051.433	   3.888	 184.913	0.758	    14.191	   271.008	   714.008	     0.000	     0.000	     1.000	     0.575
 53.00	  919.098	-5529.566	 3051.537	   4.073	 190.621	0.793	    14.791	   268.893	   729.540	     0.000	     0.000	     1.000	     0.585
 54.00	  919.155	-5529.718	 3051.643	   4.263	 196.427	0.830	    15.394	   266.778	   745.180	     0.000	     0.000	     1.000	     0.595
 55.00	  919.214	-5529.875	 3051.753	   4.460	 202.333	0.867	    15.997	   264.663	   760.929	     0.000	     0.000	     1.000	     0.605
 56.00	  919.276	-5530.035	 3051.866	   4.662	 208.480	0.906	    16.620	   262.548	   776.787	     0.000	     0.000	     1.000	     0.659
 57.00	  919.341	-5530.200	 3051.984	   4.869	 214.746	0.948	    17.246	   260.433	   792.757	     0.000	     0.000	     1.000	     0.674
 58.00	  919.409	-5530.368	 3052.105	   5.083	 221.135	0.994	    17.871	   258.318	   808.839	     0.000	     0.000	     1.000	     0.688
 59.00	  919.482	-5530.540	 3052.231	   5.302	 227.646	1.042	    18.494	   256.203	   825.036	     0.000	     0.000	     1.000	     0.703
 60.00	  919.558	-5530.716	 3052.361	   5.527	 234.284	1.095	    19.112	   254.088	   841.348	     0.000	     0.000	     1.000	     0.718
 61.00	  919.637	-5530.896	 3052.495	   5.759	 241.049	1.151	    19.725	   251.974	   857.777	     0.000	     0.000	     1.000	     0.734
 62.00	  919.721	-5531.080	 3052.634	   5.996	 247.943	1.210	    20.329	   249.859	   874.323	     0.000	     0.000	     1.000	     0.749
 63.00	  919.810	-5531.267	 3052.778	   6.240	 254.970	1.274	    20.923	   247.744	   890.990	     0.000	     0.000	     1.000	     0.765
 64.00	  919.902	-5531.458	 3052.926	   6.489	 262.130	1.342	    21.505	   245.629	   907.777	     0.000	     0.000	     1.000	     0.781
 65.00	  919.999	-5531.654	 3053.080	   6.745	 269.426	1.415	    22.073	   243.514	   924.686	     0.000	     0.000	     1.000	     0.798
 66.00	  920.101	-5531.853	 3053.238	   7.008	 276.860	1.492	    22.624	   241.399	   941.719	     0.000	     0.000	     1.000	     0.814
 67.00	  920.208	-5532.055	 3053.401	   7.277	 284.433	1.574	    23.157	   239.284	   958.876	     0.000	     0.000	     1.000	     0.831
 68.00	  920.320	-5532.262	 3053.570	   7.552	 292.149	1.661	    23.668	   237.169	   976.160	     0.000	     0.000	     1.000	     0.848
 69.00	  920.437	-5532.472	 3053.744	   7.834	 300.008	1.753	    24.155	   235.054	   993.570	     0.000	     0.000	     1.000	     0.865
 70.00	  920.560	-5532.686	 3053.923	   8.122	 308.014	1.850	    24.617	   232.940	  1011.110	     0.000	     0.000	     1.000	     0.883
 71.00	  920.688	-5532.903	 3054.108	   8.417	 316.168	1.953	    25.051	   230.825	  1028.779	     0.000	     0.000	     1.000	     0.900
 72.00	  920.822	-5533.125	 3054.298	   8.719	 324.472	2.062	    25.455	   228.710	  1046.579	     0.000	     0.000	     1.000	     0.918
 73.00	  920.961	-5533.349	 3054.494	   9.027	 332.928	2.176	    25.826	   226.595	  1064.512	     0.000	     0.000	     1.000	     0.936
 74.00	  921.107	-5533.578	 3054.696	   9.342	 341.539	2.297	    26.161	   224.480	  1082.578	     0.000	     0.000	     1.000	     0.954
 75.00	  921.260	-5533.810	 3054.905	   9.664	 350.307	2.424	    26.460	   222.365	  1100.780	     0.000	     0.000	     1.000	     0.973
 76.00	  921.418	-5534.045	 3055.119	   9.993	 359.233	2.558	    26.720	   220.250	  1119.117	     0.000	     0.000	     1.000	     0.992
 77.00	  921.584	-5534.284	 3055.339	  10.329	 368.321	2.699	    26.939	   218.135	  1137.591	     0.000	     0.000	     1.000	     1.010
 78.00	  921.756	-5534.527	 3055.566	  10.672	 377.572	2.846	    27.114	   216.021	  1156.205	     0.000	     0.000	     1.000	     1.029
 79.00	  921.935	-5534.772	 3055.799	  11.022	 386.989	3.001	    27.245	   213.906	  1174.958	     0.000	     0.000	     1.000	     1.049
 80.00	  922.121	-5535.022	 3056.038	  11.379	 396.577	3.164	    27.046	   211.791	  1193.852	     0.000	     0.000	     1.000	     1.069
 81.00	  922.315	-5535.274	 3056.285	  11.743	 406.339	3.334	    26.821	   209.676	  1212.888	     0.000	     0.000	     1.000	     1.089
 82.00	  922.517	-5535.530	 3056.538	  12.114	 416.279	3.512	    26.559	   207.561	  1232.067	     0.000	     0.000	     1.000	     1.109
